PE UV       SUBTECH     SPECTRUM    ASCII       PEDS        4.00        
   -1
Green __Green Float.Sample.Raw.asc
17/06/21
15:16:47.00
17/06/21
15:16:47.00
Administrator

250.000000
1
Lambda 950
950L1205241
PerkinElmer UV WinLab 6.0.4.0738 / 1.61.00 Lambda 900

0
0
3350/servo 860.8/2
0
0
UV/VIS
1
1
1
DoublePol,CommonBeamDepol,RBeamAtt,SBeamAtt,uv/vis/nir detector
0
0
0
0
Program
Program
3350/servo 860.8/2
3350/0.2 860.8/0.2
3350/0.2 860.8/0.2
0
1
 
 
 
0
 
860.8
319.2
860.8
Front
100
on
S:100 R:100
0
0
0
0
 
0
 
 
 
0
 
 
0
0
0
0
0
 
 
 
 
0
0


0
0
#HDR
-1
-1
#GR
nm
%T
1.0
0.0
3300.000000
-1.000000
3051
8
91.286840
-0.003367
#DATA
3300.000000	62.961475
3299.000000	62.994564
3298.000000	62.944362
3297.000000	62.808657
3296.000000	62.624153
3295.000000	62.928698
3294.000000	62.954687
3293.000000	62.995110
3292.000000	63.027724
3291.000000	63.043688
3290.000000	63.117879
3289.000000	63.079957
3288.000000	63.022482
3287.000000	63.114236
3286.000000	63.104222
3285.000000	63.117967
3284.000000	63.175104
3283.000000	63.105868
3282.000000	63.188738
3281.000000	63.152830
3280.000000	63.155674
3279.000000	63.186129
3278.000000	63.158314
3277.000000	63.236730
3276.000000	63.259221
3275.000000	63.285322
3274.000000	63.357400
3273.000000	63.256786
3272.000000	63.237836
3271.000000	63.299278
3270.000000	63.368246
3269.000000	63.320114
3268.000000	63.344827
3267.000000	63.446243
3266.000000	63.388396
3265.000000	63.446532
3264.000000	63.384644
3263.000000	63.443876
3262.000000	63.468955
3261.000000	63.463242
3260.000000	63.514243
3259.000000	63.606027
3258.000000	63.512020
3257.000000	63.570834
3256.000000	63.587225
3255.000000	63.537946
3254.000000	63.579157
3253.000000	63.608425
3252.000000	63.638790
3251.000000	63.646711
3250.000000	63.662433
3249.000000	63.694834
3248.000000	63.683636
3247.000000	63.752232
3246.000000	63.727604
3245.000000	63.757313
3244.000000	63.768647
3243.000000	63.756556
3242.000000	63.784761
3241.000000	63.809406
3240.000000	63.841775
3239.000000	63.841540
3238.000000	63.893612
3237.000000	63.895973
3236.000000	63.900820
3235.000000	63.942169
3234.000000	63.909896
3233.000000	63.914995
3232.000000	63.940601
3231.000000	63.971983
3230.000000	64.011846
3229.000000	64.068943
3228.000000	64.053008
3227.000000	64.067694
3226.000000	64.071663
3225.000000	64.130979
3224.000000	64.142307
3223.000000	64.135674
3222.000000	64.162064
3221.000000	64.177465
3220.000000	64.208469
3219.000000	64.180846
3218.000000	64.180865
3217.000000	64.240128
3216.000000	64.228872
3215.000000	64.268010
3214.000000	64.274338
3213.000000	64.287261
3212.000000	64.355158
3211.000000	64.367544
3210.000000	64.356592
3209.000000	64.382877
3208.000000	64.391483
3207.000000	64.433505
3206.000000	64.441282
3205.000000	64.454091
3204.000000	64.477032
3203.000000	64.495377
3202.000000	64.542419
3201.000000	64.566123
3200.000000	64.590188
3199.000000	64.569658
3198.000000	64.565619
3197.000000	64.620054
3196.000000	64.651016
3195.000000	64.654225
3194.000000	64.654506
3193.000000	64.677970
3192.000000	64.660198
3191.000000	64.654061
3190.000000	64.710221
3189.000000	64.725110
3188.000000	64.744632
3187.000000	64.767944
3186.000000	64.755370
3185.000000	64.785582
3184.000000	64.822634
3183.000000	64.860407
3182.000000	64.875334
3181.000000	64.879504
3180.000000	64.912020
3179.000000	64.909610
3178.000000	64.904049
3177.000000	64.945733
3176.000000	64.959048
3175.000000	64.968688
3174.000000	64.981056
3173.000000	65.024400
3172.000000	65.057177
3171.000000	65.040541
3170.000000	65.064667
3169.000000	65.077331
3168.000000	65.079420
3167.000000	65.096378
3166.000000	65.143327
3165.000000	65.165973
3164.000000	65.150541
3163.000000	65.181004
3162.000000	65.206142
3161.000000	65.211612
3160.000000	65.246852
3159.000000	65.276595
3158.000000	65.308164
3157.000000	65.311365
3156.000000	65.304026
3155.000000	65.338253
3154.000000	65.359180
3153.000000	65.376159
3152.000000	65.383739
3151.000000	65.398167
3150.000000	65.428130
3149.000000	65.428353
3148.000000	65.454504
3147.000000	65.469252
3146.000000	65.474799
3145.000000	65.487563
3144.000000	65.493417
3143.000000	65.501968
3142.000000	65.523091
3141.000000	65.535012
3140.000000	65.543149
3139.000000	65.516092
3138.000000	65.545665
3137.000000	65.579157
3136.000000	65.589411
3135.000000	65.589244
3134.000000	65.609420
3133.000000	65.619676
3132.000000	65.624644
3131.000000	65.637112
3130.000000	65.654415
3129.000000	65.682218
3128.000000	65.706736
3127.000000	65.682688
3126.000000	65.692342
3125.000000	65.722969
3124.000000	65.718945
3123.000000	65.741008
3122.000000	65.772128
3121.000000	65.785432
3120.000000	65.793200
3119.000000	65.805183
3118.000000	65.800939
3117.000000	65.790731
3116.000000	65.813639
3115.000000	65.832062
3114.000000	65.856710
3113.000000	65.870062
3112.000000	65.850585
3111.000000	65.886899
3110.000000	65.900519
3109.000000	65.862711
3108.000000	65.883894
3107.000000	65.901392
3106.000000	65.915397
3105.000000	65.914500
3104.000000	65.946769
3103.000000	65.946156
3102.000000	65.935393
3101.000000	65.942275
3100.000000	65.959702
3099.000000	65.959945
3098.000000	65.985874
3097.000000	65.984352
3096.000000	65.988425
3095.000000	65.997491
3094.000000	65.993768
3093.000000	65.985191
3092.000000	65.991623
3091.000000	65.995755
3090.000000	66.001240
3089.000000	66.017990
3088.000000	66.030192
3087.000000	66.012112
3086.000000	66.032284
3085.000000	66.036763
3084.000000	66.020021
3083.000000	66.044221
3082.000000	66.044624
3081.000000	66.058603
3080.000000	66.061735
3079.000000	66.049716
3078.000000	66.053166
3077.000000	66.051512
3076.000000	66.057054
3075.000000	66.049926
3074.000000	66.060045
3073.000000	66.082798
3072.000000	66.086693
3071.000000	66.090229
3070.000000	66.093520
3069.000000	66.093486
3068.000000	66.102093
3067.000000	66.076459
3066.000000	66.093588
3065.000000	66.074288
3064.000000	66.076384
3063.000000	66.086580
3062.000000	66.093809
3061.000000	66.101485
3060.000000	66.088506
3059.000000	66.067708
3058.000000	66.080043
3057.000000	66.058206
3056.000000	66.079738
3055.000000	66.078367
3054.000000	66.062012
3053.000000	66.066182
3052.000000	66.073664
3051.000000	66.038936
3050.000000	66.075678
3049.000000	66.077726
3048.000000	66.054096
3047.000000	66.088381
3046.000000	66.047110
3045.000000	66.054790
3044.000000	66.049439
3043.000000	66.034756
3042.000000	66.031955
3041.000000	66.015264
3040.000000	66.028988
3039.000000	66.020702
3038.000000	66.024255
3037.000000	66.007446
3036.000000	66.025110
3035.000000	66.012978
3034.000000	65.973230
3033.000000	65.991551
3032.000000	65.983572
3031.000000	65.992754
3030.000000	65.991940
3029.000000	65.973466
3028.000000	65.972271
3027.000000	65.960014
3026.000000	65.946566
3025.000000	65.950188
3024.000000	65.942148
3023.000000	65.940977
3022.000000	65.929716
3021.000000	65.923907
3020.000000	65.924213
3019.000000	65.886081
3018.000000	65.883773
3017.000000	65.877840
3016.000000	65.873988
3015.000000	65.861531
3014.000000	65.839848
3013.000000	65.839830
3012.000000	65.818223
3011.000000	65.804281
3010.000000	65.788251
3009.000000	65.779218
3008.000000	65.788684
3007.000000	65.772903
3006.000000	65.758515
3005.000000	65.737733
3004.000000	65.720210
3003.000000	65.711285
3002.000000	65.703427
3001.000000	65.707350
3000.000000	65.695602
2999.000000	65.671318
2998.000000	65.650193
2997.000000	65.629092
2996.000000	65.609193
2995.000000	65.602217
2994.000000	65.583061
2993.000000	65.575102
2992.000000	65.565737
2991.000000	65.540726
2990.000000	65.534070
2989.000000	65.525654
2988.000000	65.515794
2987.000000	65.477261
2986.000000	65.475066
2985.000000	65.468880
2984.000000	65.449931
2983.000000	65.433673
2982.000000	65.431665
2981.000000	65.418917
2980.000000	65.402715
2979.000000	65.390489
2978.000000	65.373730
2977.000000	65.358842
2976.000000	65.347658
2975.000000	65.325354
2974.000000	65.300976
2973.000000	65.283474
2972.000000	65.270421
2971.000000	65.252913
2970.000000	65.231297
2969.000000	65.211912
2968.000000	65.193320
2967.000000	65.174730
2966.000000	65.155561
2965.000000	65.128888
2964.000000	65.111627
2963.000000	65.091625
2962.000000	65.067310
2961.000000	65.057346
2960.000000	65.042646
2959.000000	65.028189
2958.000000	65.010223
2957.000000	64.998926
2956.000000	64.983264
2955.000000	64.966607
2954.000000	64.955116
2953.000000	64.963549
2952.000000	64.990389
2951.000000	65.001698
2950.000000	64.991853
2949.000000	64.957366
2948.000000	64.912842
2947.000000	64.873340
2946.000000	64.843902
2945.000000	64.825215
2944.000000	64.807608
2943.000000	64.800309
2942.000000	64.794860
2941.000000	64.760272
2940.000000	64.724895
2939.000000	64.703143
2938.000000	64.699153
2937.000000	64.685153
2936.000000	64.658310
2935.000000	64.643314
2934.000000	64.625759
2933.000000	64.605276
2932.000000	64.581217
2931.000000	64.559555
2930.000000	64.545360
2929.000000	64.525345
2928.000000	64.508428
2927.000000	64.490232
2926.000000	64.461518
2925.000000	64.445285
2924.000000	64.431367
2923.000000	64.404748
2922.000000	64.378400
2921.000000	64.352746
2920.000000	64.335751
2919.000000	64.334741
2918.000000	64.316638
2917.000000	64.289715
2916.000000	64.263928
2915.000000	64.247554
2914.000000	64.248131
2913.000000	64.235052
2912.000000	64.198540
2911.000000	64.173990
2910.000000	64.168996
2909.000000	64.163445
2908.000000	64.137370
2907.000000	64.115607
2906.000000	64.103315
2905.000000	64.082507
2904.000000	64.054785
2903.000000	64.025878
2902.000000	64.004900
2901.000000	63.990978
2900.000000	63.967667
2899.000000	63.951154
2898.000000	63.943060
2897.000000	63.924895
2896.000000	63.907027
2895.000000	63.916952
2894.000000	63.898054
2893.000000	63.882549
2892.000000	63.869565
2891.000000	63.840205
2890.000000	63.824855
2889.000000	63.826551
2888.000000	63.816596
2887.000000	63.804777
2886.000000	63.790461
2885.000000	63.792069
2884.000000	63.778479
2883.000000	63.763318
2882.000000	63.746850
2881.000000	63.738393
2880.000000	63.723155
2879.000000	63.711732
2878.000000	63.700562
2877.000000	63.683410
2876.000000	63.684168
2875.000000	63.677680
2874.000000	63.664950
2873.000000	63.660772
2872.000000	63.649277
2871.000000	63.643908
2870.000000	63.631641
2869.000000	63.616716
2868.000000	63.603026
2867.000000	63.587246
2866.000000	63.594951
2865.000000	63.607185
2864.000000	63.607285
2863.000000	63.607235
2862.000000	63.617198
2861.000000	63.615413
2860.000000	63.608003
2859.000000	63.630260
2858.000000	63.628753
2857.000000	63.622728
2856.000000	63.636070
2855.000000	63.615121
2854.000000	63.599401
2853.000000	63.600344
2852.000000	63.594666
2851.000000	63.582685
2850.000000	63.596946
2849.000000	63.587575
2848.000000	63.603968
2847.000000	63.623799
2846.000000	63.642159
2845.000000	63.646820
2844.000000	63.661370
2843.000000	63.665137
2842.000000	63.679309
2841.000000	63.701349
2840.000000	63.715567
2839.000000	63.732454
2838.000000	63.745294
2837.000000	63.738782
2836.000000	63.735262
2835.000000	63.756093
2834.000000	63.756646
2833.000000	63.769594
2832.000000	63.790043
2831.000000	63.774321
2830.000000	63.838949
2829.000000	63.880437
2828.000000	63.908372
2827.000000	63.958786
2826.000000	64.012304
2825.000000	64.041993
2824.000000	64.052572
2823.000000	64.105858
2822.000000	64.177861
2821.000000	64.169187
2820.000000	64.193355
2819.000000	64.243525
2818.000000	64.274391
2817.000000	64.316893
2816.000000	64.337344
2815.000000	64.418919
2814.000000	64.483880
2813.000000	64.509352
2812.000000	64.533114
2811.000000	64.601183
2810.000000	64.667503
2809.000000	64.721367
2808.000000	64.785693
2807.000000	64.882383
2806.000000	64.922776
2805.000000	64.984754
2804.000000	65.041043
2803.000000	65.150234
2802.000000	65.256584
2801.000000	65.375157
2800.000000	65.479418
2799.000000	65.582783
2798.000000	65.700333
2797.000000	65.801041
2796.000000	65.910423
2795.000000	66.006257
2794.000000	66.092327
2793.000000	66.194150
2792.000000	66.290600
2791.000000	66.390628
2790.000000	66.512181
2789.000000	66.624861
2788.000000	66.709182
2787.000000	66.801075
2786.000000	66.915360
2785.000000	67.044039
2784.000000	67.196345
2783.000000	67.351019
2782.000000	67.579009
2781.000000	67.745303
2780.000000	67.914098
2779.000000	68.099020
2778.000000	68.265519
2777.000000	68.435119
2776.000000	68.581258
2775.000000	68.731562
2774.000000	68.886203
2773.000000	69.091832
2772.000000	69.283699
2771.000000	69.482029
2770.000000	69.634040
2769.000000	69.810697
2768.000000	70.003652
2767.000000	70.221656
2766.000000	70.459139
2765.000000	70.705631
2764.000000	70.961624
2763.000000	71.211036
2762.000000	71.487714
2761.000000	71.823643
2760.000000	72.142774
2759.000000	72.480133
2758.000000	72.770041
2757.000000	73.089200
2756.000000	73.447280
2755.000000	73.807750
2754.000000	74.177552
2753.000000	74.510581
2752.000000	74.857926
2751.000000	75.178884
2750.000000	75.494154
2749.000000	75.800364
2748.000000	76.073560
2747.000000	76.296822
2746.000000	76.479057
2745.000000	76.662209
2744.000000	76.887299
2743.000000	77.154596
2742.000000	77.447490
2741.000000	77.770967
2740.000000	78.159632
2739.000000	78.581148
2738.000000	79.043523
2737.000000	79.561886
2736.000000	80.081051
2735.000000	80.523868
2734.000000	80.969535
2733.000000	81.292408
2732.000000	81.527828
2731.000000	81.725383
2730.000000	81.935260
2729.000000	82.135660
2728.000000	82.342297
2727.000000	82.554186
2726.000000	82.730183
2725.000000	82.893393
2724.000000	83.080659
2723.000000	83.325114
2722.000000	83.615508
2721.000000	83.959110
2720.000000	84.342301
2719.000000	84.732772
2718.000000	85.101356
2717.000000	85.449129
2716.000000	85.745262
2715.000000	86.027784
2714.000000	86.277256
2713.000000	86.478559
2712.000000	86.665348
2711.000000	86.863519
2710.000000	87.051417
2709.000000	87.219911
2708.000000	87.389672
2707.000000	87.569865
2706.000000	87.706936
2705.000000	87.867149
2704.000000	88.008774
2703.000000	88.116127
2702.000000	88.194000
2701.000000	88.244351
2700.000000	88.312275
2699.000000	88.383559
2698.000000	88.459020
2697.000000	88.548472
2696.000000	88.639380
2695.000000	88.693529
2694.000000	88.737505
2693.000000	88.788109
2692.000000	88.835450
2691.000000	88.866544
2690.000000	88.868696
2689.000000	88.893962
2688.000000	88.894218
2687.000000	88.907457
2686.000000	88.929454
2685.000000	88.961010
2684.000000	89.025750
2683.000000	89.063216
2682.000000	89.099432
2681.000000	89.128021
2680.000000	89.165177
2679.000000	89.203621
2678.000000	89.251919
2677.000000	89.299283
2676.000000	89.348323
2675.000000	89.356598
2674.000000	89.359864
2673.000000	89.395533
2672.000000	89.443403
2671.000000	89.495556
2670.000000	89.556873
2669.000000	89.600951
2668.000000	89.639271
2667.000000	89.690872
2666.000000	89.743662
2665.000000	89.777006
2664.000000	89.763834
2663.000000	89.796313
2662.000000	89.851262
2661.000000	89.867679
2660.000000	89.884274
2659.000000	89.891429
2658.000000	89.881434
2657.000000	89.869536
2656.000000	89.870579
2655.000000	89.862797
2654.000000	89.853224
2653.000000	89.833679
2652.000000	89.806104
2651.000000	89.780266
2650.000000	89.759369
2649.000000	89.745450
2648.000000	89.744665
2647.000000	89.738178
2646.000000	89.728936
2645.000000	89.744248
2644.000000	89.732558
2643.000000	89.744304
2642.000000	89.736459
2641.000000	89.772203
2640.000000	89.777587
2639.000000	89.800386
2638.000000	89.815174
2637.000000	89.827521
2636.000000	89.857534
2635.000000	89.874869
2634.000000	89.881198
2633.000000	89.863539
2632.000000	89.844969
2631.000000	89.833770
2630.000000	89.816562
2629.000000	89.793209
2628.000000	89.801368
2627.000000	89.860418
2626.000000	89.845218
2625.000000	89.865457
2624.000000	89.906323
2623.000000	89.933137
2622.000000	89.953672
2621.000000	89.966773
2620.000000	89.981208
2619.000000	89.973757
2618.000000	89.954309
2617.000000	89.929690
2616.000000	89.938476
2615.000000	89.961394
2614.000000	89.983302
2613.000000	90.017916
2612.000000	90.039272
2611.000000	90.064348
2610.000000	90.096344
2609.000000	90.128655
2608.000000	90.157204
2607.000000	90.183935
2606.000000	90.197455
2605.000000	90.216560
2604.000000	90.208802
2603.000000	90.216081
2602.000000	90.214845
2601.000000	90.192284
2600.000000	90.177512
2599.000000	90.147143
2598.000000	90.133104
2597.000000	90.113712
2596.000000	90.093047
2595.000000	90.080700
2594.000000	90.064987
2593.000000	90.034311
2592.000000	90.029478
2591.000000	90.027165
2590.000000	90.050122
2589.000000	90.049243
2588.000000	90.049208
2587.000000	90.042086
2586.000000	89.968578
2585.000000	90.009920
2584.000000	90.049805
2583.000000	90.062825
2582.000000	90.058279
2581.000000	89.980516
2580.000000	90.029911
2579.000000	90.037207
2578.000000	90.017994
2577.000000	90.046265
2576.000000	90.038585
2575.000000	90.068547
2574.000000	90.074418
2573.000000	90.115576
2572.000000	90.157510
2571.000000	90.132796
2570.000000	90.119380
2569.000000	90.143540
2568.000000	90.125284
2567.000000	90.130515
2566.000000	90.064440
2565.000000	90.043256
2564.000000	90.030732
2563.000000	90.024532
2562.000000	89.992810
2561.000000	90.004512
2560.000000	90.012491
2559.000000	90.050796
2558.000000	90.068393
2557.000000	90.076856
2556.000000	90.068249
2555.000000	90.063939
2554.000000	90.053255
2553.000000	90.066448
2552.000000	90.037436
2551.000000	90.023000
2550.000000	89.998651
2549.000000	90.002466
2548.000000	90.031605
2547.000000	90.032572
2546.000000	90.058961
2545.000000	90.069917
2544.000000	90.085925
2543.000000	90.076415
2542.000000	89.967744
2541.000000	90.074298
2540.000000	90.118086
2539.000000	90.114791
2538.000000	90.113277
2537.000000	90.136887
2536.000000	90.160323
2535.000000	90.142140
2534.000000	90.122107
2533.000000	90.089396
2532.000000	90.063346
2531.000000	90.050361
2530.000000	89.967657
2529.000000	90.026906
2528.000000	90.042303
2527.000000	90.102435
2526.000000	90.101335
2525.000000	90.108212
2524.000000	90.109964
2523.000000	90.120192
2522.000000	90.121185
2521.000000	90.131768
2520.000000	90.164087
2519.000000	90.166779
2518.000000	90.186632
2517.000000	90.187075
2516.000000	90.177867
2515.000000	90.177505
2514.000000	90.158702
2513.000000	90.116202
2512.000000	90.120074
2511.000000	90.134939
2510.000000	90.153174
2509.000000	90.156577
2508.000000	90.149005
2507.000000	90.165535
2506.000000	90.164685
2505.000000	90.175237
2504.000000	90.201702
2503.000000	90.174541
2502.000000	90.173239
2501.000000	90.183305
2500.000000	90.183907
2499.000000	90.183911
2498.000000	90.188483
2497.000000	90.219352
2496.000000	90.216016
2495.000000	90.216088
2494.000000	90.233059
2493.000000	90.236229
2492.000000	90.220187
2491.000000	90.222040
2490.000000	90.215392
2489.000000	90.201676
2488.000000	90.209123
2487.000000	90.218299
2486.000000	90.233176
2485.000000	90.219142
2484.000000	90.209975
2483.000000	90.229125
2482.000000	90.250492
2481.000000	90.246685
2480.000000	90.260634
2479.000000	90.260601
2478.000000	90.272160
2477.000000	90.264000
2476.000000	90.273636
2475.000000	90.287182
2474.000000	90.294543
2473.000000	90.284879
2472.000000	90.297717
2471.000000	90.278672
2470.000000	90.283456
2469.000000	90.280003
2468.000000	90.260512
2467.000000	90.264083
2466.000000	90.274400
2465.000000	90.305179
2464.000000	90.313710
2463.000000	90.312415
2462.000000	90.303103
2461.000000	90.323173
2460.000000	90.319520
2459.000000	90.305988
2458.000000	90.309607
2457.000000	90.317503
2456.000000	90.333663
2455.000000	90.339963
2454.000000	90.349940
2453.000000	90.355233
2452.000000	90.364410
2451.000000	90.353459
2450.000000	90.365288
2449.000000	90.369221
2448.000000	90.383198
2447.000000	90.382920
2446.000000	90.374659
2445.000000	90.376194
2444.000000	90.379449
2443.000000	90.387317
2442.000000	90.389027
2441.000000	90.400973
2440.000000	90.400099
2439.000000	90.410853
2438.000000	90.414711
2437.000000	90.404858
2436.000000	90.409332
2435.000000	90.415887
2434.000000	90.423107
2433.000000	90.416885
2432.000000	90.434136
2431.000000	90.438085
2430.000000	90.449140
2429.000000	90.460202
2428.000000	90.463508
2427.000000	90.474542
2426.000000	90.477025
2425.000000	90.482349
2424.000000	90.482600
2423.000000	90.485806
2422.000000	90.491984
2421.000000	90.511259
