PE UV       SUBTECH     SPECTRUM    ASCII       PEDS        4.00        
   -1
Borofloat.Sample.Raw.asc
17/06/21
15:02:49.00
17/06/21
15:02:49.00
Administrator

250.000000
1
Lambda 950
950L1205241
PerkinElmer UV WinLab 6.0.4.0738 / 1.61.00 Lambda 900

0
0
3350/servo 860.8/2
0
0
UV/VIS
1
1
1
DoublePol,CommonBeamDepol,RBeamAtt,SBeamAtt,uv/vis/nir detector
0
0
0
0
Program
Program
3350/servo 860.8/2
3350/0.2 860.8/0.2
3350/0.2 860.8/0.2
0
1
 
 
 
0
 
860.8
319.2
860.8
Front
100
on
S:100 R:100
0
0
0
0
 
0
 
 
 
0
 
 
0
0
0
0
0
 
 
 
 
0
0


0
0
#HDR
-1
-1
#GR
nm
%T
1.0
0.0
3300.000000
-1.000000
3051
8
93.332436
20.634504
#DATA
3300.000000	66.243391
3299.000000	66.387958
3298.000000	66.303641
3297.000000	66.365706
3296.000000	66.272930
3295.000000	66.571482
3294.000000	66.521852
3293.000000	66.683577
3292.000000	66.945814
3291.000000	66.969955
3290.000000	67.085975
3289.000000	67.170682
3288.000000	67.240481
3287.000000	67.293269
3286.000000	67.262642
3285.000000	67.403324
3284.000000	67.448597
3283.000000	67.460435
3282.000000	67.596266
3281.000000	67.611503
3280.000000	67.585101
3279.000000	67.697800
3278.000000	67.733274
3277.000000	67.869863
3276.000000	67.859582
3275.000000	67.947116
3274.000000	68.054809
3273.000000	68.004281
3272.000000	68.152573
3271.000000	68.127568
3270.000000	68.136864
3269.000000	68.188115
3268.000000	68.227250
3267.000000	68.313203
3266.000000	68.249037
3265.000000	68.344354
3264.000000	68.381208
3263.000000	68.406757
3262.000000	68.466863
3261.000000	68.485957
3260.000000	68.558651
3259.000000	68.612234
3258.000000	68.585387
3257.000000	68.634621
3256.000000	68.644761
3255.000000	68.651141
3254.000000	68.694795
3253.000000	68.789194
3252.000000	68.806452
3251.000000	68.729987
3250.000000	68.744196
3249.000000	68.804232
3248.000000	68.803186
3247.000000	68.914117
3246.000000	68.871766
3245.000000	68.898762
3244.000000	68.885730
3243.000000	68.864092
3242.000000	68.918205
3241.000000	68.925776
3240.000000	68.913503
3239.000000	68.927751
3238.000000	68.989113
3237.000000	69.030355
3236.000000	68.950919
3235.000000	68.987954
3234.000000	69.000873
3233.000000	68.972843
3232.000000	68.960673
3231.000000	68.968483
3230.000000	69.010957
3229.000000	69.017132
3228.000000	68.964525
3227.000000	68.969651
3226.000000	68.955559
3225.000000	68.969745
3224.000000	68.969041
3223.000000	68.965286
3222.000000	68.984038
3221.000000	68.977844
3220.000000	68.942359
3219.000000	68.927787
3218.000000	68.897850
3217.000000	68.920875
3216.000000	68.910350
3215.000000	68.903635
3214.000000	68.865049
3213.000000	68.847524
3212.000000	68.832754
3211.000000	68.823798
3210.000000	68.835902
3209.000000	68.817709
3208.000000	68.805450
3207.000000	68.793633
3206.000000	68.759442
3205.000000	68.724301
3204.000000	68.712001
3203.000000	68.714473
3202.000000	68.725744
3201.000000	68.680639
3200.000000	68.633617
3199.000000	68.594333
3198.000000	68.551429
3197.000000	68.541932
3196.000000	68.552194
3195.000000	68.512573
3194.000000	68.447246
3193.000000	68.450151
3192.000000	68.448152
3191.000000	68.392733
3190.000000	68.360444
3189.000000	68.341223
3188.000000	68.318219
3187.000000	68.302133
3186.000000	68.273651
3185.000000	68.232628
3184.000000	68.197731
3183.000000	68.193399
3182.000000	68.159467
3181.000000	68.113354
3180.000000	68.113689
3179.000000	68.096044
3178.000000	68.038420
3177.000000	67.987605
3176.000000	67.958372
3175.000000	67.926980
3174.000000	67.880679
3173.000000	67.876378
3172.000000	67.851687
3171.000000	67.798212
3170.000000	67.797691
3169.000000	67.771923
3168.000000	67.722811
3167.000000	67.690730
3166.000000	67.680507
3165.000000	67.663958
3164.000000	67.592665
3163.000000	67.564467
3162.000000	67.538370
3161.000000	67.500998
3160.000000	67.470261
3159.000000	67.416458
3158.000000	67.375757
3157.000000	67.335643
3156.000000	67.314701
3155.000000	67.293403
3154.000000	67.229019
3153.000000	67.197081
3152.000000	67.180165
3151.000000	67.154905
3150.000000	67.106849
3149.000000	67.051896
3148.000000	67.049191
3147.000000	66.987002
3146.000000	66.942925
3145.000000	66.909135
3144.000000	66.845141
3143.000000	66.806297
3142.000000	66.765126
3141.000000	66.719540
3140.000000	66.694946
3139.000000	66.641631
3138.000000	66.621501
3137.000000	66.574308
3136.000000	66.511609
3135.000000	66.458751
3134.000000	66.438470
3133.000000	66.405702
3132.000000	66.352946
3131.000000	66.320998
3130.000000	66.281344
3129.000000	66.239640
3128.000000	66.209009
3127.000000	66.153464
3126.000000	66.102373
3125.000000	66.087500
3124.000000	66.044684
3123.000000	65.992662
3122.000000	65.936779
3121.000000	65.928897
3120.000000	65.892674
3119.000000	65.835594
3118.000000	65.803447
3117.000000	65.744121
3116.000000	65.708926
3115.000000	65.675692
3114.000000	65.623925
3113.000000	65.582495
3112.000000	65.517422
3111.000000	65.510587
3110.000000	65.454291
3109.000000	65.372984
3108.000000	65.325283
3107.000000	65.270795
3106.000000	65.231871
3105.000000	65.188543
3104.000000	65.181360
3103.000000	65.136574
3102.000000	65.082657
3101.000000	65.042836
3100.000000	64.999050
3099.000000	64.951357
3098.000000	64.899406
3097.000000	64.845675
3096.000000	64.804182
3095.000000	64.767723
3094.000000	64.711109
3093.000000	64.657111
3092.000000	64.612962
3091.000000	64.576701
3090.000000	64.512301
3089.000000	64.491965
3088.000000	64.461102
3087.000000	64.378283
3086.000000	64.355130
3085.000000	64.306120
3084.000000	64.256528
3083.000000	64.209865
3082.000000	64.165137
3081.000000	64.117962
3080.000000	64.070509
3079.000000	64.032539
3078.000000	63.964504
3077.000000	63.935794
3076.000000	63.888880
3075.000000	63.827592
3074.000000	63.767377
3073.000000	63.737691
3072.000000	63.703796
3071.000000	63.648533
3070.000000	63.594415
3069.000000	63.526584
3068.000000	63.467182
3067.000000	63.426000
3066.000000	63.379189
3065.000000	63.376352
3064.000000	63.309953
3063.000000	63.243520
3062.000000	63.226429
3061.000000	63.171069
3060.000000	63.133313
3059.000000	63.052550
3058.000000	63.023598
3057.000000	62.955016
3056.000000	62.921962
3055.000000	62.873547
3054.000000	62.813597
3053.000000	62.753842
3052.000000	62.732565
3051.000000	62.681145
3050.000000	62.631050
3049.000000	62.558360
3048.000000	62.518717
3047.000000	62.489601
3046.000000	62.431938
3045.000000	62.363300
3044.000000	62.298215
3043.000000	62.238702
3042.000000	62.188030
3041.000000	62.129996
3040.000000	62.093748
3039.000000	62.034178
3038.000000	61.984603
3037.000000	61.918569
3036.000000	61.878314
3035.000000	61.822967
3034.000000	61.746006
3033.000000	61.688130
3032.000000	61.639824
3031.000000	61.582610
3030.000000	61.532944
3029.000000	61.493815
3028.000000	61.441113
3027.000000	61.382582
3026.000000	61.301560
3025.000000	61.253845
3024.000000	61.203395
3023.000000	61.139787
3022.000000	61.089487
3021.000000	61.033825
3020.000000	60.996038
3019.000000	60.900249
3018.000000	60.842129
3017.000000	60.794739
3016.000000	60.737745
3015.000000	60.691897
3014.000000	60.624157
3013.000000	60.553269
3012.000000	60.488749
3011.000000	60.429244
3010.000000	60.358014
3009.000000	60.309261
3008.000000	60.249190
3007.000000	60.195278
3006.000000	60.136098
3005.000000	60.079304
3004.000000	60.007815
3003.000000	59.946168
3002.000000	59.879606
3001.000000	59.827981
3000.000000	59.770866
2999.000000	59.697145
2998.000000	59.634799
2997.000000	59.566873
2996.000000	59.495388
2995.000000	59.434715
2994.000000	59.365877
2993.000000	59.304961
2992.000000	59.216584
2991.000000	59.148310
2990.000000	59.086311
2989.000000	59.023978
2988.000000	58.955484
2987.000000	58.873250
2986.000000	58.817677
2985.000000	58.763302
2984.000000	58.691456
2983.000000	58.630070
2982.000000	58.569339
2981.000000	58.504618
2980.000000	58.437438
2979.000000	58.360888
2978.000000	58.289540
2977.000000	58.220754
2976.000000	58.160346
2975.000000	58.083914
2974.000000	58.008697
2973.000000	57.930555
2972.000000	57.844897
2971.000000	57.763822
2970.000000	57.688418
2969.000000	57.617231
2968.000000	57.531022
2967.000000	57.460378
2966.000000	57.382164
2965.000000	57.299855
2964.000000	57.231934
2963.000000	57.147025
2962.000000	57.066464
2961.000000	57.001191
2960.000000	56.923414
2959.000000	56.847157
2958.000000	56.769445
2957.000000	56.691428
2956.000000	56.614444
2955.000000	56.540525
2954.000000	56.475853
2953.000000	56.428580
2952.000000	56.394684
2951.000000	56.341070
2950.000000	56.270809
2949.000000	56.178192
2948.000000	56.066077
2947.000000	55.954034
2946.000000	55.847872
2945.000000	55.754415
2944.000000	55.672157
2943.000000	55.591466
2942.000000	55.507331
2941.000000	55.402800
2940.000000	55.296625
2939.000000	55.208594
2938.000000	55.127684
2937.000000	55.042277
2936.000000	54.946032
2935.000000	54.853182
2934.000000	54.769688
2933.000000	54.679722
2932.000000	54.572476
2931.000000	54.478837
2930.000000	54.402529
2929.000000	54.310123
2928.000000	54.216775
2927.000000	54.127678
2926.000000	54.026508
2925.000000	53.929889
2924.000000	53.835394
2923.000000	53.729890
2922.000000	53.620486
2921.000000	53.510078
2920.000000	53.401990
2919.000000	53.309555
2918.000000	53.213416
2917.000000	53.096384
2916.000000	52.989869
2915.000000	52.892092
2914.000000	52.803354
2913.000000	52.715634
2912.000000	52.597453
2911.000000	52.486738
2910.000000	52.407434
2909.000000	52.318958
2908.000000	52.213096
2907.000000	52.103887
2906.000000	52.002747
2905.000000	51.902797
2904.000000	51.787889
2903.000000	51.671025
2902.000000	51.552767
2901.000000	51.439748
2900.000000	51.324257
2899.000000	51.206683
2898.000000	51.088512
2897.000000	50.976895
2896.000000	50.864677
2895.000000	50.748748
2894.000000	50.651937
2893.000000	50.555698
2892.000000	50.440041
2891.000000	50.314883
2890.000000	50.214373
2889.000000	50.102472
2888.000000	49.975882
2887.000000	49.865554
2886.000000	49.748151
2885.000000	49.633963
2884.000000	49.521402
2883.000000	49.391032
2882.000000	49.262093
2881.000000	49.154817
2880.000000	49.043520
2879.000000	48.921291
2878.000000	48.795102
2877.000000	48.669451
2876.000000	48.562919
2875.000000	48.458267
2874.000000	48.343758
2873.000000	48.224355
2872.000000	48.091299
2871.000000	47.955134
2870.000000	47.819872
2869.000000	47.689112
2868.000000	47.543822
2867.000000	47.395817
2866.000000	47.282572
2865.000000	47.155468
2864.000000	47.035344
2863.000000	46.908979
2862.000000	46.793624
2861.000000	46.677590
2860.000000	46.558600
2859.000000	46.435296
2858.000000	46.319631
2857.000000	46.198794
2856.000000	46.072901
2855.000000	45.917261
2854.000000	45.745907
2853.000000	45.589355
2852.000000	45.428747
2851.000000	45.257788
2850.000000	45.098896
2849.000000	44.934617
2848.000000	44.795421
2847.000000	44.665348
2846.000000	44.534865
2845.000000	44.418131
2844.000000	44.285595
2843.000000	44.158758
2842.000000	44.061166
2841.000000	43.943117
2840.000000	43.826444
2839.000000	43.684192
2838.000000	43.514705
2837.000000	43.335869
2836.000000	43.139625
2835.000000	42.975221
2834.000000	42.796986
2833.000000	42.603903
2832.000000	42.403786
2831.000000	42.207619
2830.000000	42.042810
2829.000000	41.915592
2828.000000	41.812960
2827.000000	41.720651
2826.000000	41.614429
2825.000000	41.486434
2824.000000	41.336277
2823.000000	41.204323
2822.000000	41.079097
2821.000000	40.904379
2820.000000	40.709088
2819.000000	40.490670
2818.000000	40.263328
2817.000000	40.078793
2816.000000	39.881275
2815.000000	39.726348
2814.000000	39.585596
2813.000000	39.435430
2812.000000	39.257037
2811.000000	39.149045
2810.000000	39.046004
2809.000000	38.946089
2808.000000	38.852829
2807.000000	38.740051
2806.000000	38.540407
2805.000000	38.337181
2804.000000	38.103372
2803.000000	37.905456
2802.000000	37.686639
2801.000000	37.470039
2800.000000	37.255340
2799.000000	37.098869
2798.000000	36.957769
2797.000000	36.818412
2796.000000	36.721734
2795.000000	36.637118
2794.000000	36.551462
2793.000000	36.469548
2792.000000	36.386763
2791.000000	36.282460
2790.000000	36.187365
2789.000000	36.058218
2788.000000	35.917176
2787.000000	35.721128
2786.000000	35.557709
2785.000000	35.376538
2784.000000	35.212473
2783.000000	35.084680
2782.000000	35.009418
2781.000000	34.892504
2780.000000	34.755623
2779.000000	34.601174
2778.000000	34.498010
2777.000000	34.414299
2776.000000	34.351580
2775.000000	34.300062
2774.000000	34.260367
2773.000000	34.221716
2772.000000	34.184533
2771.000000	34.141898
2770.000000	34.053738
2769.000000	33.967232
2768.000000	33.918174
2767.000000	33.889195
2766.000000	33.869317
2765.000000	33.850650
2764.000000	33.852032
2763.000000	33.863995
2762.000000	33.878614
2761.000000	33.879993
2760.000000	33.899141
2759.000000	33.943925
2758.000000	33.986276
2757.000000	34.077009
2756.000000	34.223734
2755.000000	34.395372
2754.000000	34.564737
2753.000000	34.709331
2752.000000	34.876535
2751.000000	35.044793
2750.000000	35.229477
2749.000000	35.462411
2748.000000	35.678425
2747.000000	35.868185
2746.000000	36.043962
2745.000000	36.232139
2744.000000	36.469050
2743.000000	36.756279
2742.000000	37.106768
2741.000000	37.518602
2740.000000	38.045344
2739.000000	38.685038
2738.000000	39.369900
2737.000000	40.161782
2736.000000	41.016826
2735.000000	41.833309
2734.000000	42.571284
2733.000000	43.179750
2732.000000	43.703319
2731.000000	44.157358
2730.000000	44.633902
2729.000000	45.170859
2728.000000	45.765313
2727.000000	46.365774
2726.000000	46.910860
2725.000000	47.441036
2724.000000	48.149771
2723.000000	49.061144
2722.000000	50.133629
2721.000000	51.392507
2720.000000	52.752863
2719.000000	54.135383
2718.000000	55.520394
2717.000000	56.887773
2716.000000	58.197164
2715.000000	59.389027
2714.000000	60.465267
2713.000000	61.434820
2712.000000	62.357775
2711.000000	63.334021
2710.000000	64.373765
2709.000000	65.419954
2708.000000	66.522718
2707.000000	67.708266
2706.000000	68.905183
2705.000000	70.069821
2704.000000	71.138225
2703.000000	71.997006
2702.000000	72.697327
2701.000000	73.309010
2700.000000	73.935112
2699.000000	74.625665
2698.000000	75.385096
2697.000000	76.279434
2696.000000	77.191268
2695.000000	78.095943
2694.000000	78.959609
2693.000000	79.817549
2692.000000	80.660166
2691.000000	81.407773
2690.000000	82.059080
2689.000000	82.687905
2688.000000	83.245461
2687.000000	83.697340
2686.000000	84.077618
2685.000000	84.386127
2684.000000	84.656844
2683.000000	84.876542
2682.000000	85.099424
2681.000000	85.324496
2680.000000	85.504216
2679.000000	85.687951
2678.000000	85.962466
2677.000000	86.207406
2676.000000	86.383771
2675.000000	86.519521
2674.000000	86.650737
2673.000000	86.801533
2672.000000	86.976627
2671.000000	87.145533
2670.000000	87.320127
2669.000000	87.495190
2668.000000	87.655205
2667.000000	87.809128
2666.000000	87.953612
2665.000000	88.087232
2664.000000	88.184340
2663.000000	88.259457
2662.000000	88.334826
2661.000000	88.402970
2660.000000	88.462390
2659.000000	88.506865
2658.000000	88.527412
2657.000000	88.539689
2656.000000	88.555656
2655.000000	88.571249
2654.000000	88.589314
2653.000000	88.583625
2652.000000	88.586344
2651.000000	88.607458
2650.000000	88.603006
2649.000000	88.616036
2648.000000	88.654776
2647.000000	88.667638
2646.000000	88.656270
2645.000000	88.682217
2644.000000	88.691668
2643.000000	88.715886
2642.000000	88.746424
2641.000000	88.739736
2640.000000	88.766865
2639.000000	88.843207
2638.000000	88.878702
2637.000000	88.886134
2636.000000	88.902675
2635.000000	88.941087
2634.000000	88.962823
2633.000000	88.961661
2632.000000	88.921213
2631.000000	88.886888
2630.000000	88.863416
2629.000000	88.861074
2628.000000	88.876772
2627.000000	88.892453
2626.000000	88.862077
2625.000000	88.872070
2624.000000	88.892306
2623.000000	88.915228
2622.000000	88.931700
2621.000000	88.958541
2620.000000	88.984876
2619.000000	88.989851
2618.000000	88.979834
2617.000000	88.964160
2616.000000	88.963568
2615.000000	88.933892
2614.000000	88.952777
2613.000000	88.958791
2612.000000	88.931556
2611.000000	88.902407
2610.000000	88.875906
2609.000000	88.809993
2608.000000	88.809111
2607.000000	88.802953
2606.000000	88.782481
2605.000000	88.813866
2604.000000	88.803548
2603.000000	88.812884
2602.000000	88.816681
2601.000000	88.833373
2600.000000	88.884643
2599.000000	88.927428
2598.000000	88.942154
2597.000000	88.991912
2596.000000	89.019405
2595.000000	89.036088
2594.000000	89.026974
2593.000000	89.014505
2592.000000	89.021822
2591.000000	89.014776
2590.000000	89.009014
2589.000000	89.001056
2588.000000	88.994920
2587.000000	88.974332
2586.000000	88.975201
2585.000000	88.954160
2584.000000	88.972054
2583.000000	88.994035
2582.000000	89.008445
2581.000000	88.967727
2580.000000	89.007959
2579.000000	89.017965
2578.000000	89.006359
2577.000000	89.031967
2576.000000	89.045213
2575.000000	89.053721
2574.000000	89.073585
2573.000000	89.081042
2572.000000	89.121719
2571.000000	89.085265
2570.000000	89.061426
2569.000000	89.076699
2568.000000	89.071150
2567.000000	89.086630
2566.000000	89.066200
2565.000000	89.063787
2564.000000	89.072540
2563.000000	89.068511
2562.000000	89.024250
2561.000000	89.020813
2560.000000	89.009190
2559.000000	89.039728
2558.000000	89.052621
2557.000000	89.069905
2556.000000	89.084980
2555.000000	89.120730
2554.000000	89.185416
2553.000000	89.249675
2552.000000	89.271644
2551.000000	89.246697
2550.000000	89.188802
2549.000000	89.153276
2548.000000	89.154790
2547.000000	89.162335
2546.000000	89.153278
2545.000000	89.191374
2544.000000	89.216574
2543.000000	89.231436
2542.000000	89.251140
2541.000000	89.271909
2540.000000	89.278528
2539.000000	89.236907
2538.000000	89.257212
2537.000000	89.268750
2536.000000	89.296291
2535.000000	89.307015
2534.000000	89.339919
2533.000000	89.355766
2532.000000	89.376528
2531.000000	89.396763
2530.000000	89.399673
2529.000000	89.395314
2528.000000	89.398797
2527.000000	89.428143
2526.000000	89.426473
2525.000000	89.440389
2524.000000	89.431818
2523.000000	89.461321
2522.000000	89.451562
2521.000000	89.475671
2520.000000	89.515757
2519.000000	89.553752
2518.000000	89.569519
2517.000000	89.602881
2516.000000	89.608465
2515.000000	89.608362
2514.000000	89.598870
2513.000000	89.580589
2512.000000	89.605984
2511.000000	89.629866
2510.000000	89.663481
2509.000000	89.663694
2508.000000	89.691008
2507.000000	89.708982
2506.000000	89.715898
2505.000000	89.728647
2504.000000	89.754977
2503.000000	89.756686
2502.000000	89.783174
2501.000000	89.809918
2500.000000	89.828016
2499.000000	89.828986
2498.000000	89.863614
2497.000000	89.862086
2496.000000	89.875533
2495.000000	89.879935
2494.000000	89.908275
2493.000000	89.911393
2492.000000	89.932514
2491.000000	89.941192
2490.000000	89.963157
2489.000000	89.953578
2488.000000	89.981384
2487.000000	90.025027
2486.000000	90.055864
2485.000000	90.034026
2484.000000	90.043747
2483.000000	90.046657
2482.000000	90.078474
2481.000000	90.079174
2480.000000	90.063385
2479.000000	90.109783
2478.000000	90.135890
2477.000000	90.137964
2476.000000	90.147812
2475.000000	90.169792
2474.000000	90.170603
2473.000000	90.182371
2472.000000	90.193319
2471.000000	90.204693
2470.000000	90.218132
2469.000000	90.231137
2468.000000	90.235396
2467.000000	90.246667
2466.000000	90.277355
2465.000000	90.283750
2464.000000	90.296819
2463.000000	90.313999
2462.000000	90.315876
2461.000000	90.329190
2460.000000	90.332292
2459.000000	90.338499
2458.000000	90.354998
2457.000000	90.361525
2456.000000	90.385078
2455.000000	90.401725
2454.000000	90.408214
2453.000000	90.411293
2452.000000	90.425116
2451.000000	90.416795
2450.000000	90.438124
2449.000000	90.448079
2448.000000	90.464492
2447.000000	90.465482
2446.000000	90.467880
2445.000000	90.468353
2444.000000	90.478985
2443.000000	90.500790
2442.000000	90.508318
2441.000000	90.525337
2440.000000	90.526037
2439.000000	90.536912
2438.000000	90.539088
2437.000000	90.548553
2436.000000	90.549207
2435.000000	90.556490
2434.000000	90.559681
2433.000000	90.555980
2432.000000	90.565651
2431.000000	90.575729
2430.000000	90.589546
2429.000000	90.601788
2428.000000	90.596520
2427.000000	90.591404
2426.000000	90.606459
2425.000000	90.614634
2424.000000	90.618676
2423.000000	90.607728
2422.000000	90.608098
2421.000000	90.626009
