PE UV       SUBTECH     SPECTRUM    ASCII       PEDS        4.00        
   -1
Corning 7980.Sample.Raw.asc
17/06/21
14:21:20.00
17/06/21
14:21:20.00
Administrator

250.000000
1
Lambda 950
950L1205241
PerkinElmer UV WinLab 6.0.4.0738 / 1.61.00 Lambda 900

0
0
3350/servo 860.8/2
0
0
UV/VIS
1
1
1
DoublePol,CommonBeamDepol,RBeamAtt,SBeamAtt,uv/vis/nir detector
0
0
0
0
Program
Program
3350/servo 860.8/2
3350/0.2 860.8/0.2
3350/0.2 860.8/0.2
0
1
 
 
 
0
 
860.8
319.2
860.8
Front
100
on
S:100 R:100
0
0
0
0
 
0
 
 
 
0
 
 
0
0
0
0
0
 
 
 
 
0
0


0
0
#HDR
-1
-1
#GR
nm
%T
1.0
0.0
3300.000000
-1.000000
3051
8
94.020485
3.402316
#DATA
3300.000000	92.910806
3299.000000	92.954998
3298.000000	92.714493
3297.000000	92.755362
3296.000000	92.709254
3295.000000	92.792140
3294.000000	92.810749
3293.000000	92.830602
3292.000000	92.829394
3291.000000	92.853311
3290.000000	92.853864
3289.000000	92.868421
3288.000000	92.863153
3287.000000	92.842601
3286.000000	92.842437
3285.000000	92.853410
3284.000000	92.793166
3283.000000	92.764004
3282.000000	92.891690
3281.000000	92.814354
3280.000000	92.692450
3279.000000	92.840868
3278.000000	92.811481
3277.000000	92.804706
3276.000000	92.788681
3275.000000	92.743340
3274.000000	92.764561
3273.000000	92.749074
3272.000000	92.723957
3271.000000	92.702468
3270.000000	92.736296
3269.000000	92.713851
3268.000000	92.636221
3267.000000	92.770272
3266.000000	92.749480
3265.000000	92.743235
3264.000000	92.693476
3263.000000	92.703767
3262.000000	92.711797
3261.000000	92.713214
3260.000000	92.830287
3259.000000	92.835909
3258.000000	92.775327
3257.000000	92.716824
3256.000000	92.677630
3255.000000	92.673838
3254.000000	92.700809
3253.000000	92.718923
3252.000000	92.747960
3251.000000	92.642577
3250.000000	92.716154
3249.000000	92.678050
3248.000000	92.637790
3247.000000	92.740602
3246.000000	92.654054
3245.000000	92.693230
3244.000000	92.660259
3243.000000	92.660226
3242.000000	92.675376
3241.000000	92.629055
3240.000000	92.608381
3239.000000	92.607179
3238.000000	92.619475
3237.000000	92.612786
3236.000000	92.626072
3235.000000	92.652083
3234.000000	92.685926
3233.000000	92.670984
3232.000000	92.603149
3231.000000	92.605699
3230.000000	92.632042
3229.000000	92.612509
3228.000000	92.571780
3227.000000	92.561135
3226.000000	92.595083
3225.000000	92.615122
3224.000000	92.606407
3223.000000	92.575967
3222.000000	92.577926
3221.000000	92.603849
3220.000000	92.543396
3219.000000	92.539506
3218.000000	92.566335
3217.000000	92.552515
3216.000000	92.523252
3215.000000	92.548005
3214.000000	92.513482
3213.000000	92.560038
3212.000000	92.554632
3211.000000	92.535156
3210.000000	92.547695
3209.000000	92.548444
3208.000000	92.538326
3207.000000	92.542897
3206.000000	92.548270
3205.000000	92.551000
3204.000000	92.578058
3203.000000	92.593259
3202.000000	92.594789
3201.000000	92.565274
3200.000000	92.522416
3199.000000	92.497576
3198.000000	92.494107
3197.000000	92.488409
3196.000000	92.481007
3195.000000	92.461240
3194.000000	92.458974
3193.000000	92.466098
3192.000000	92.490624
3191.000000	92.468682
3190.000000	92.471585
3189.000000	92.462978
3188.000000	92.429425
3187.000000	92.400960
3186.000000	92.408542
3185.000000	92.390605
3184.000000	92.380543
3183.000000	92.419504
3182.000000	92.408134
3181.000000	92.385105
3180.000000	92.385961
3179.000000	92.344468
3178.000000	92.324417
3177.000000	92.342333
3176.000000	92.331287
3175.000000	92.331815
3174.000000	92.335680
3173.000000	92.357542
3172.000000	92.357470
3171.000000	92.340116
3170.000000	92.341804
3169.000000	92.329714
3168.000000	92.301936
3167.000000	92.267840
3166.000000	92.288741
3165.000000	92.313924
3164.000000	92.275578
3163.000000	92.252414
3162.000000	92.278400
3161.000000	92.275320
3160.000000	92.263423
3159.000000	92.270347
3158.000000	92.284699
3157.000000	92.259376
3156.000000	92.264039
3155.000000	92.260610
3154.000000	92.229593
3153.000000	92.226130
3152.000000	92.239314
3151.000000	92.219367
3150.000000	92.185313
3149.000000	92.166430
3148.000000	92.166927
3147.000000	92.188321
3146.000000	92.197735
3145.000000	92.175288
3144.000000	92.160920
3143.000000	92.171310
3142.000000	92.163460
3141.000000	92.128472
3140.000000	92.106888
3139.000000	92.092709
3138.000000	92.087830
3137.000000	92.112343
3136.000000	92.088505
3135.000000	92.071349
3134.000000	92.080208
3133.000000	92.074556
3132.000000	92.077357
3131.000000	92.098439
3130.000000	92.095119
3129.000000	92.097141
3128.000000	92.080230
3127.000000	92.074455
3126.000000	92.025858
3125.000000	92.034035
3124.000000	92.016887
3123.000000	91.994267
3122.000000	92.011212
3121.000000	92.004414
3120.000000	92.025425
3119.000000	92.004920
3118.000000	91.991711
3117.000000	92.026699
3116.000000	92.001296
3115.000000	91.998022
3114.000000	92.020191
3113.000000	92.004236
3112.000000	91.986949
3111.000000	92.002743
3110.000000	91.989625
3109.000000	91.948432
3108.000000	91.946895
3107.000000	91.932810
3106.000000	91.933767
3105.000000	91.922375
3104.000000	91.940589
3103.000000	91.914103
3102.000000	91.891339
3101.000000	91.920611
3100.000000	91.893252
3099.000000	91.898602
3098.000000	91.903189
3097.000000	91.880843
3096.000000	91.878434
3095.000000	91.864831
3094.000000	91.840643
3093.000000	91.829179
3092.000000	91.823047
3091.000000	91.815827
3090.000000	91.797581
3089.000000	91.826469
3088.000000	91.792500
3087.000000	91.802358
3086.000000	91.785735
3085.000000	91.767832
3084.000000	91.759653
3083.000000	91.771649
3082.000000	91.756202
3081.000000	91.746901
3080.000000	91.739936
3079.000000	91.726256
3078.000000	91.695631
3077.000000	91.689935
3076.000000	91.691363
3075.000000	91.677542
3074.000000	91.650187
3073.000000	91.673456
3072.000000	91.650681
3071.000000	91.639201
3070.000000	91.627579
3069.000000	91.605865
3068.000000	91.605329
3067.000000	91.596398
3066.000000	91.612003
3065.000000	91.570542
3064.000000	91.578660
3063.000000	91.545089
3062.000000	91.544837
3061.000000	91.502661
3060.000000	91.514904
3059.000000	91.466278
3058.000000	91.503248
3057.000000	91.481866
3056.000000	91.468843
3055.000000	91.447731
3054.000000	91.430918
3053.000000	91.414097
3052.000000	91.428512
3051.000000	91.396953
3050.000000	91.379050
3049.000000	91.384991
3048.000000	91.333905
3047.000000	91.370435
3046.000000	91.332468
3045.000000	91.327095
3044.000000	91.281655
3043.000000	91.243950
3042.000000	91.250881
3041.000000	91.255748
3040.000000	91.217523
3039.000000	91.193507
3038.000000	91.198309
3037.000000	91.162920
3036.000000	91.157158
3035.000000	91.128330
3034.000000	91.091738
3033.000000	91.082674
3032.000000	91.062535
3031.000000	91.051060
3030.000000	91.039998
3029.000000	91.026934
3028.000000	91.005032
3027.000000	90.983395
3026.000000	90.965069
3025.000000	90.943490
3024.000000	90.917989
3023.000000	90.901177
3022.000000	90.889219
3021.000000	90.867879
3020.000000	90.863728
3019.000000	90.837753
3018.000000	90.787517
3017.000000	90.804711
3016.000000	90.784338
3015.000000	90.755774
3014.000000	90.712980
3013.000000	90.712985
3012.000000	90.658677
3011.000000	90.649755
3010.000000	90.614183
3009.000000	90.588990
3008.000000	90.583527
3007.000000	90.563829
3006.000000	90.524226
3005.000000	90.510059
3004.000000	90.475034
3003.000000	90.427874
3002.000000	90.401844
3001.000000	90.404572
3000.000000	90.372486
2999.000000	90.352762
2998.000000	90.327904
2997.000000	90.304429
2996.000000	90.263681
2995.000000	90.240866
2994.000000	90.203177
2993.000000	90.175192
2992.000000	90.139961
2991.000000	90.117469
2990.000000	90.078096
2989.000000	90.047055
2988.000000	90.029992
2987.000000	89.975488
2986.000000	89.950528
2985.000000	89.931319
2984.000000	89.884476
2983.000000	89.853406
2982.000000	89.826892
2981.000000	89.803482
2980.000000	89.767328
2979.000000	89.730576
2978.000000	89.678452
2977.000000	89.647924
2976.000000	89.617297
2975.000000	89.584909
2974.000000	89.540216
2973.000000	89.495189
2972.000000	89.437975
2971.000000	89.397111
2970.000000	89.360634
2969.000000	89.317806
2968.000000	89.261973
2967.000000	89.223887
2966.000000	89.187793
2965.000000	89.123188
2964.000000	89.081281
2963.000000	89.024718
2962.000000	88.965773
2961.000000	88.924988
2960.000000	88.886087
2959.000000	88.827649
2958.000000	88.766848
2957.000000	88.726908
2956.000000	88.677632
2955.000000	88.622033
2954.000000	88.577641
2953.000000	88.527925
2952.000000	88.484223
2951.000000	88.436590
2950.000000	88.386491
2949.000000	88.317872
2948.000000	88.239314
2947.000000	88.164750
2946.000000	88.096312
2945.000000	88.034071
2944.000000	87.971916
2943.000000	87.891234
2942.000000	87.827770
2941.000000	87.750855
2940.000000	87.665114
2939.000000	87.584492
2938.000000	87.521854
2937.000000	87.434647
2936.000000	87.370498
2935.000000	87.323100
2934.000000	87.209193
2933.000000	87.114512
2932.000000	87.041812
2931.000000	86.963638
2930.000000	86.888049
2929.000000	86.788872
2928.000000	86.697548
2927.000000	86.618159
2926.000000	86.528419
2925.000000	86.435998
2924.000000	86.335420
2923.000000	86.222835
2922.000000	86.115892
2921.000000	86.008829
2920.000000	85.894352
2919.000000	85.788298
2918.000000	85.689401
2917.000000	85.553712
2916.000000	85.441318
2915.000000	85.337519
2914.000000	85.217636
2913.000000	85.115670
2912.000000	84.994205
2911.000000	84.875486
2910.000000	84.764206
2909.000000	84.644334
2908.000000	84.512602
2907.000000	84.391068
2906.000000	84.265719
2905.000000	84.126812
2904.000000	83.976041
2903.000000	83.822209
2902.000000	83.682617
2901.000000	83.537905
2900.000000	83.375277
2899.000000	83.210065
2898.000000	83.035147
2897.000000	82.869177
2896.000000	82.704585
2895.000000	82.568331
2894.000000	82.386656
2893.000000	82.207555
2892.000000	82.032002
2891.000000	81.838790
2890.000000	81.679665
2889.000000	81.489477
2888.000000	81.282902
2887.000000	81.094881
2886.000000	80.896844
2885.000000	80.687790
2884.000000	80.473086
2883.000000	80.244983
2882.000000	80.011336
2881.000000	79.791038
2880.000000	79.575548
2879.000000	79.342679
2878.000000	79.114794
2877.000000	78.875081
2876.000000	78.625619
2875.000000	78.370318
2874.000000	78.108208
2873.000000	77.840626
2872.000000	77.556929
2871.000000	77.256526
2870.000000	76.941127
2869.000000	76.615029
2868.000000	76.296184
2867.000000	75.931099
2866.000000	75.611311
2865.000000	75.278880
2864.000000	74.945587
2863.000000	74.592763
2862.000000	74.283234
2861.000000	73.961470
2860.000000	73.603563
2859.000000	73.241158
2858.000000	72.876666
2857.000000	72.481454
2856.000000	72.052213
2855.000000	71.577663
2854.000000	71.082793
2853.000000	70.596461
2852.000000	70.081512
2851.000000	69.525279
2850.000000	69.002315
2849.000000	68.432968
2848.000000	67.879816
2847.000000	67.336147
2846.000000	66.828132
2845.000000	66.363130
2844.000000	65.829122
2843.000000	65.335761
2842.000000	64.849508
2841.000000	64.328917
2840.000000	63.791862
2839.000000	63.186305
2838.000000	62.545081
2837.000000	61.822152
2836.000000	61.065330
2835.000000	60.299863
2834.000000	59.496759
2833.000000	58.622178
2832.000000	57.770700
2831.000000	56.959673
2830.000000	56.183097
2829.000000	55.467704
2828.000000	54.828474
2827.000000	54.208518
2826.000000	53.567865
2825.000000	52.946078
2824.000000	52.255612
2823.000000	51.542153
2822.000000	50.823092
2821.000000	49.991883
2820.000000	49.088100
2819.000000	48.116446
2818.000000	47.143915
2817.000000	46.217672
2816.000000	45.273310
2815.000000	44.325447
2814.000000	43.459919
2813.000000	42.650311
2812.000000	41.870151
2811.000000	41.196112
2810.000000	40.616738
2809.000000	39.980072
2808.000000	39.327723
2807.000000	38.554590
2806.000000	37.726110
2805.000000	36.806981
2804.000000	35.836154
2803.000000	34.833661
2802.000000	33.814245
2801.000000	32.764965
2800.000000	31.728629
2799.000000	30.726919
2798.000000	29.912748
2797.000000	29.209847
2796.000000	28.601648
2795.000000	28.083902
2794.000000	27.615487
2793.000000	27.124216
2792.000000	26.588932
2791.000000	26.016256
2790.000000	25.406254
2789.000000	24.774901
2788.000000	24.107043
2787.000000	23.408608
2786.000000	22.731955
2785.000000	22.042054
2784.000000	21.334919
2783.000000	20.662427
2782.000000	20.041312
2781.000000	19.387141
2780.000000	18.781653
2779.000000	18.201989
2778.000000	17.682607
2777.000000	17.180414
2776.000000	16.727861
2775.000000	16.295685
2774.000000	15.874884
2773.000000	15.498526
2772.000000	15.124714
2771.000000	14.764002
2770.000000	14.367463
2769.000000	13.930771
2768.000000	13.488700
2767.000000	13.059930
2766.000000	12.648773
2765.000000	12.236811
2764.000000	11.829304
2763.000000	11.420725
2762.000000	10.998038
2761.000000	10.569058
2760.000000	10.145680
2759.000000	9.716536
2758.000000	9.325882
2757.000000	8.955752
2756.000000	8.629681
2755.000000	8.317161
2754.000000	7.998335
2753.000000	7.680323
2752.000000	7.367919
2751.000000	7.100558
2750.000000	6.887244
2749.000000	6.712124
2748.000000	6.566480
2747.000000	6.443571
2746.000000	6.302734
2745.000000	6.161270
2744.000000	6.052998
2743.000000	5.954680
2742.000000	5.821557
2741.000000	5.616340
2740.000000	5.329524
2739.000000	4.999666
2738.000000	4.678921
2737.000000	4.433063
2736.000000	4.216737
2735.000000	4.051142
2734.000000	3.923051
2733.000000	3.821651
2732.000000	3.726117
2731.000000	3.680356
2730.000000	3.703762
2729.000000	3.780080
2728.000000	3.877516
2727.000000	3.981425
2726.000000	3.997637
2725.000000	3.931524
2724.000000	3.768833
2723.000000	3.561719
2722.000000	3.433618
2721.000000	3.402316
2720.000000	3.443439
2719.000000	3.498962
2718.000000	3.522716
2717.000000	3.558744
2716.000000	3.631922
2715.000000	3.707862
2714.000000	3.794235
2713.000000	3.944708
2712.000000	4.152210
2711.000000	4.427178
2710.000000	4.746349
2709.000000	5.086012
2708.000000	5.444140
2707.000000	5.863834
2706.000000	6.335541
2705.000000	6.892373
2704.000000	7.502062
2703.000000	8.083252
2702.000000	8.633970
2701.000000	9.260905
2700.000000	10.022885
2699.000000	11.016750
2698.000000	12.334793
2697.000000	14.031706
2696.000000	16.118553
2695.000000	18.487740
2694.000000	20.972253
2693.000000	23.598043
2692.000000	26.314406
2691.000000	29.125816
2690.000000	32.044424
2689.000000	35.075535
2688.000000	37.977715
2687.000000	40.644354
2686.000000	43.116274
2685.000000	45.331367
2684.000000	47.355888
2683.000000	49.406908
2682.000000	51.534472
2681.000000	53.670857
2680.000000	55.334630
2679.000000	56.919837
2678.000000	59.070392
2677.000000	61.008833
2676.000000	62.542610
2675.000000	63.844100
2674.000000	65.138577
2673.000000	66.593763
2672.000000	68.150261
2671.000000	69.646324
2670.000000	71.118165
2669.000000	72.539951
2668.000000	73.825341
2667.000000	75.047941
2666.000000	76.188192
2665.000000	77.180829
2664.000000	77.976231
2663.000000	78.573048
2662.000000	79.074035
2661.000000	79.542142
2660.000000	79.965322
2659.000000	80.283183
2658.000000	80.517473
2657.000000	80.728299
2656.000000	80.943916
2655.000000	81.164811
2654.000000	81.400771
2653.000000	81.641408
2652.000000	81.853411
2651.000000	82.026656
2650.000000	82.201511
2649.000000	82.376118
2648.000000	82.546156
2647.000000	82.691229
2646.000000	82.829693
2645.000000	82.979445
2644.000000	83.120220
2643.000000	83.259895
2642.000000	83.402354
2641.000000	83.538296
2640.000000	83.639711
2639.000000	83.754214
2638.000000	83.839902
2637.000000	83.952941
2636.000000	84.074967
2635.000000	84.147455
2634.000000	84.213359
2633.000000	84.259946
2632.000000	84.289658
2631.000000	84.330865
2630.000000	84.400638
2629.000000	84.496487
2628.000000	84.605989
2627.000000	84.722812
2626.000000	84.782030
2625.000000	84.864324
2624.000000	84.930175
2623.000000	84.983848
2622.000000	85.043442
2621.000000	85.106064
2620.000000	85.173312
2619.000000	85.207870
2618.000000	85.240314
2617.000000	85.252944
2616.000000	85.293311
2615.000000	85.343765
2614.000000	85.420779
2613.000000	85.491626
2612.000000	85.507421
2611.000000	85.569004
2610.000000	85.601353
2609.000000	85.614856
2608.000000	85.669856
2607.000000	85.724156
2606.000000	85.764854
2605.000000	85.832134
2604.000000	85.877150
2603.000000	85.929460
2602.000000	85.977064
2601.000000	85.995989
2600.000000	86.054419
2599.000000	86.083388
2598.000000	86.115525
2597.000000	86.163795
2596.000000	86.204925
2595.000000	86.255316
2594.000000	86.283063
2593.000000	86.312538
2592.000000	86.345974
2591.000000	86.401260
2590.000000	86.485399
2589.000000	86.527887
2588.000000	86.577721
2587.000000	86.610371
2586.000000	86.652850
2585.000000	86.682305
2584.000000	86.745388
2583.000000	86.829879
2582.000000	86.888386
2581.000000	86.875484
2580.000000	86.969842
2579.000000	87.019806
2578.000000	87.040365
2577.000000	87.118690
2576.000000	87.177783
2575.000000	87.236554
2574.000000	87.267622
2573.000000	87.310096
2572.000000	87.404766
2571.000000	87.415635
2570.000000	87.489964
2569.000000	87.549635
2568.000000	87.603087
2567.000000	87.624854
2566.000000	87.670431
2565.000000	87.724729
2564.000000	87.814182
2563.000000	87.864957
2562.000000	87.914001
2561.000000	87.991784
2560.000000	88.045807
2559.000000	88.130125
2558.000000	88.196385
2557.000000	88.239397
2556.000000	88.293618
2555.000000	88.347835
2554.000000	88.412516
2553.000000	88.498835
2552.000000	88.580345
2551.000000	88.592296
2550.000000	88.616059
2549.000000	88.635521
2548.000000	88.718069
2547.000000	88.769407
2546.000000	88.852576
2545.000000	88.905369
2544.000000	88.975766
2543.000000	89.021796
2542.000000	89.094488
2541.000000	89.147516
2540.000000	89.208011
2539.000000	89.266325
2538.000000	89.315949
2537.000000	89.378138
2536.000000	89.455241
2535.000000	89.489877
2534.000000	89.553032
2533.000000	89.600274
2532.000000	89.652605
2531.000000	89.713285
2530.000000	89.764707
2529.000000	89.813600
2528.000000	89.867673
2527.000000	89.945272
2526.000000	90.004489
2525.000000	90.063725
2524.000000	90.105643
2523.000000	90.173939
2522.000000	90.201793
2521.000000	90.251326
2520.000000	90.302698
2519.000000	90.365601
2518.000000	90.424722
2517.000000	90.461183
2516.000000	90.508348
2515.000000	90.563510
2514.000000	90.597478
2513.000000	90.604360
2512.000000	90.683842
2511.000000	90.731681
2510.000000	90.781273
2509.000000	90.828029
2508.000000	90.872452
2507.000000	90.906405
2506.000000	90.974338
2505.000000	91.012369
2504.000000	91.069080
2503.000000	91.083184
2502.000000	91.123705
2501.000000	91.173726
2500.000000	91.145649
2499.000000	91.234858
2498.000000	91.286157
2497.000000	91.325558
2496.000000	91.348814
2495.000000	91.376530
2494.000000	91.417564
2493.000000	91.442704
2492.000000	91.481261
2491.000000	91.499734
2490.000000	91.524164
2489.000000	91.548536
2488.000000	91.592970
2487.000000	91.628412
2486.000000	91.668980
2485.000000	91.680651
2484.000000	91.701698
2483.000000	91.732458
2482.000000	91.767098
2481.000000	91.790066
2480.000000	91.814876
2479.000000	91.839490
2478.000000	91.896739
2477.000000	91.891487
2476.000000	91.921280
2475.000000	91.927890
2474.000000	91.955175
2473.000000	91.977894
2472.000000	92.010927
2471.000000	92.032323
2470.000000	92.045188
2469.000000	92.055431
2468.000000	92.059696
2467.000000	92.071393
2466.000000	92.123577
2465.000000	92.150570
2464.000000	92.169978
2463.000000	92.194318
2462.000000	92.197261
2461.000000	92.213170
2460.000000	92.224435
2459.000000	92.231659
2458.000000	92.254230
2457.000000	92.279254
2456.000000	92.301707
2455.000000	92.324040
2454.000000	92.343399
2453.000000	92.361023
2452.000000	92.375757
2451.000000	92.377898
2450.000000	92.393187
2449.000000	92.415850
2448.000000	92.434854
2447.000000	92.446754
2446.000000	92.461846
2445.000000	92.483711
2444.000000	92.496298
2443.000000	92.520291
2442.000000	92.531625
2441.000000	92.540178
2440.000000	92.567331
2439.000000	92.584264
2438.000000	92.601555
2437.000000	92.617400
2436.000000	92.623156
2435.000000	92.647271
2434.000000	92.664871
2433.000000	92.678291
2432.000000	92.712532
2431.000000	92.724196
2430.000000	92.735958
2429.000000	92.764434
2428.000000	92.784265
2427.000000	92.794678
2426.000000	92.816964
2425.000000	92.835078
2424.000000	92.844030
2423.000000	92.850553
2422.000000	92.871257
2421.000000	92.906880
2420.000000	92.919739
2419.000000	92.935722
2418.000000	92.949129
